D. M. Wieliczka and S. Weng and M. R. Querry, "Wedge shaped cell for
highly absorbent liquids: infrared optical constants of water," Appl.
Opt., 28, 1714--1719, (1989).

wavelength	absorption
(nm)	(1/cm)
20000	2471.8
19952	2483.4
19908	2494.5
19861	2511.9
19814	2529.3
19771	2546.9
19677	2559.0
19635	2570.3
19589	2582.1
19543	2594.6
19497	2606.5
19455	2623.7
19410	2636.3
19365	2648.3
19320	2660.9
19231	2673.3
19186	2685.3
19142	2698.1
19099	2710.2
19055	2722.3
19011	2735.2
18968	2754.0
18879	2767.1
18836	2780.0
18793	2792.3
18751	2798.6
18706	2812.1
18664	2825.2
18622	2837.6
18536	2850.8
18491	2864.5
18450	2877.6
18409	2890.1
18365	2897.1
18282	2910.4
18238	2924.2
18198	2930.6
18155	2944.4
18113	2951.4
18031	2964.7
17989	2971.7
17947	2985.6
17905	2992.6
17864	3006.6
17784	3013.0
17743	3027.0
17702	3034.0
17662	3047.4
17621	3054.4
17538	3068.9
17498	3075.9
17458	3090.1
17419	3097.1
17337	3111.7
17298	3118.7
17259	3133.0
17218	3140.6
17141	3147.3
17100	3162.2
17062	3169.2
16984	3176.4
16943	3184.0
16903	3191.5
16866	3206.0
16787	3213.6
16750	3220.7
16711	3228.2
16633	3235.8
16595	3243.3
16559	3250.3
16483	3258.5
16445	3266.0
16407	3265.9
16369	3273.4
16292	3281.2
16255	3288.7
16218	3296.2
16145	3303.4
16106	3303.6
16033	3311.4
15995	3319.4
15959	3326.8
15886	3326.4
15848	3334.3
15813	3334.5
15741	3341.9
15704	3341.7
15667	3349.6
15596	3349.5
15559	3350.1
15487	3357.6
15454	3356.8
15418	3357.2
15347	3357.2
15312	3364.9
15242	3364.7
15205	3365.5
15135	3365.0
15101	3372.7
15067	3372.8
14997	3372.6
14963	3372.7
14894	3373.1
14859	3372.7
14791	3373.0
14758	3372.8
14689	3373.3
14656	3373.0
14588	3373.3
14554	3365.7
14489	3357.4
14455	3357.4
14388	3357.2
14355	3349.2
14290	3349.6
14255	3341.9
14190	3342.1
14158	3334.6
14092	3334.1
14061	3326.4
13996	3318.5
13965	3311.5
13900	3296.1
13835	3288.9
13805	3273.5
13740	3266.0
13708	3250.7
13646	3235.9
13615	3221.3
13552	3213.9
13490	3191.5
13459	3176.4
13398	3154.3
13335	3133.3
13305	3112.1
13243	3090.5
13214	3068.9
13153	3041.1
13092	3012.9
13062	2985.3
13002	2957.4
12942	2924.7
12912	2897.4
12853	2863.6
12794	2831.6
12765	2792.9
12706	2760.2
12647	2722.5
12590	2685.0
12560	2642.4
12503	2606.1
12446	2552.5
12389	2511.5
12359	2460.5
12303	2409.5
12246	2355.1
12189	2307.3
12162	2249.3
12107	2192.2
12050	2143.1
11995	2084.8
11940	2028.0
11912	1967.5
11858	1909.6
11804	1853.5
11750	1794.7
11695	1741.8
11641	1694.7
11587	1648.4
11561	1600.0
11507	1552.8
11455	1502.9
11403	1455.8
11351	1406.0
11298	1354.7
11246	1309.6
11236	1300.7
11223	1292.1
11211	1289.1
11198	1271.4
11186	1252.6
11173	1233.8
11161	1213.8
11148	1193.7
11136	1173.6
11123	1155.7
11111	1137.8
11099	1120.5
11086	1104.9
11074	1090.9
11062	1077.8
11050	1066.5
11038	1055.4
11025	1045.6
11013	1036.1
11001	1030.5
10989	1024.0
10977	1019.4
10965	1014.0
10953	1010.8
10941	1005.8
10929	1003.0
10917	999.48
10905	996.42
10893	991.97
10881	988.32
10870	984.42
10858	980.63
10846	976.48
10834	971.16
10823	965.95
10811	959.90
10799	953.26
10787	945.90
10776	938.76
10764	931.25
10753	919.98
10741	910.44
10730	902.28
10718	895.51
10707	886.61
10695	879.10
10684	870.98
10672	865.44
10661	857.76
10650	851.71
10638	844.59
10627	837.80
10616	831.94
10604	826.66
10593	821.84
10582	815.95
10571	809.91
10560	802.92
10549	797.69
10537	791.37
10526	785.28
10515	780.26
10504	776.29
10493	771.00
10482	764.85
10471	760.86
10460	757.21
10449	752.23
10438	747.72
10428	743.56
10417	739.51
10406	735.57
10395	730.65
10384	725.84
10373	722.60
10363	717.89
10352	714.14
10341	710.27
10331	705.77
10320	700.77
10309	696.13
10299	691.48
10288	688.17
10277	683.86
10267	680.16
10256	677.30
10246	674.44
10235	670.47
10225	667.22
10215	663.96
10204	661.32
10194	657.80
10183	655.51
10173	652.72
10163	649.80
10152	646.87
10142	643.31
10132	640.86
10121	637.79
10111	634.21
10101	631.24
10091	628.52
10081	624.79
10070	621.67
10060	618.68
10050	615.80
10040	612.91
10030	609.90
10020	607.50
10010	604.59
10000	601.93
9990.0	598.76
9980.0	596.58
9970.1	594.03
9960.2	592.10
9950.2	590.41
9940.4	588.85
9930.5	586.91
9920.6	585.08
9910.8	583.26
9901.0	581.55
9891.2	580.22
9881.4	578.12
9871.7	576.66
9861.9	575.19
9852.2	573.59
9842.5	571.85
9832.8	570.12
9823.2	568.88
9813.5	567.52
9803.9	566.29
9794.3	565.04
9784.7	563.41
9775.2	561.78
9765.6	560.53
9756.1	559.14
9746.6	558.01
9737.1	556.88
9727.6	555.61
9718.2	554.34
9708.7	552.81
9699.3	551.66
9689.9	550.51
9680.5	549.10
9671.2	548.07
9661.8	546.91
9652.5	545.62
9643.2	544.71
9633.9	543.41
9624.6	542.23
9615.4	541.32
9606.1	540.40
9596.9	539.35
9587.7	538.55
9578.5	537.63
9569.4	536.83
9560.2	535.90
9551.1	535.36
9542.0	534.42
9532.9	534.01
9523.8	533.20
9514.7	532.25
9505.7	531.30
9496.7	530.22
9487.7	529.67
9478.7	528.84
9469.7	528.02
9460.7	526.66
9451.8	526.22
9442.9	525.92
9434.0	525.22
9425.1	524.38
9416.2	523.81
9407.3	523.23
9398.5	522.66
9389.7	522.08
9380.9	521.36
9372.1	521.18
9363.3	520.73
9354.5	520.14
9345.8	519.82
9337.1	519.37
9328.4	519.04
9319.7	518.72
9311.0	517.85
9302.3	517.25
9293.7	516.79
9285.1	516.32
9276.4	515.85
9267.8	514.97
9259.3	514.09
9250.7	513.48
9242.1	513.55
9233.6	512.94
9225.1	512.59
9216.6	512.11
9208.1	511.49
9199.6	511.14
9191.2	510.79
9182.7	510.58
9174.3	510.36
9165.9	510.15
9157.5	509.52
9149.1	509.02
9140.8	508.94
9132.4	508.44
9124.1	508.21
9115.8	507.71
9107.5	507.35
9099.2	507.40
9090.9	507.17
9082.7	506.93
9074.4	506.29
9066.2	505.92
9058.0	505.54
9049.8	505.58
9041.6	505.62
9033.4	505.39
9025.3	505.42
9017.1	505.18
9009.0	505.22
9000.9	505.54
8992.8	505.15
8984.7	505.05
8976.7	505.08
8968.6	504.97
8960.6	505.01
8952.6	505.04
8944.5	505.07
8936.6	505.38
8928.6	505.41
8920.6	505.44
8912.7	505.32
8904.7	505.63
8896.8	505.66
8888.9	505.40
8881.0	504.72
8873.1	504.60
8865.2	504.77
8857.4	504.79
8849.6	504.53
8841.7	504.55
8833.9	504.57
8826.1	504.44
8818.3	504.17
8810.6	504.05
8802.8	503.78
8795.1	503.79
8787.3	503.95
8779.6	503.82
8771.9	503.98
8764.2	504.13
8756.6	504.14
8748.9	504.44
8741.3	504.59
8733.6	505.04
8726.0	505.19
8718.4	505.34
8710.8	505.49
8703.2	505.21
8695.7	505.36
8688.1	505.80
8680.6	506.10
8673.0	506.10
8665.5	506.25
8658.0	506.69
8650.5	506.69
8643.0	506.55
8635.6	506.55
8628.1	506.70
8620.7	506.70
8613.3	506.55
8605.9	506.84
8598.5	506.69
8591.1	506.98
8583.7	507.12
8576.3	506.97
8569.0	506.97
8561.6	507.25
8554.3	507.10
8547.0	506.80
8539.7	506.94
8532.4	506.93
8525.1	506.77
8517.9	507.06
8510.6	507.19
8503.4	507.77
8496.2	507.76
8489.0	508.19
8481.8	508.33
8474.6	508.02
8467.4	508.15
8460.2	508.28
8453.1	508.57
8445.9	508.70
8438.8	509.13
8431.7	509.26
8424.6	509.24
8417.5	509.37
8410.4	509.65
8403.4	509.33
8396.3	509.31
8389.3	509.59
8382.2	509.57
8375.2	509.84
8368.2	510.12
8361.2	510.40
8354.2	511.12
8347.2	511.55
8340.3	512.13
8333.3	512.86
8326.4	512.53
8319.5	512.81
8312.6	513.08
8305.6	513.51
8298.8	513.94
8291.9	514.36
8285.0	514.64
8278.1	514.91
8271.3	515.34
8264.5	515.31
8257.6	516.04
8250.8	516.46
8244.0	516.74
8237.2	516.71
8230.5	516.83
8223.7	517.25
8216.9	517.52
8210.2	517.95
8203.4	518.22
8196.7	518.34
8190.0	518.61
8183.3	518.73
8176.6	519.15
8169.9	518.96
8163.3	519.08
8156.6	519.35
8150.0	519.77
8143.3	520.04
8136.7	519.85
8130.1	519.81
8123.5	519.61
8116.9	520.03
8110.3	520.14
8103.7	520.26
8097.2	520.52
8090.6	520.48
8084.1	520.43
8077.5	520.23
8071.0	520.65
8064.5	520.92
8058.0	521.34
8051.5	521.13
8045.1	520.77
8038.6	520.88
8032.1	520.98
8025.7	520.93
8019.2	521.35
8012.8	521.14
8006.4	521.56
8000.0	521.35
7993.6	521.45
7987.2	521.55
7980.8	521.18
7974.5	520.81
7968.1	520.59
7961.8	520.53
7955.4	520.32
7949.1	520.42
7942.8	520.67
7936.5	520.77
7930.2	520.86
7923.9	520.80
7917.7	521.37
7911.4	521.47
7905.1	521.40
7898.9	521.50
7892.7	521.91
7886.4	522.80
7880.2	523.69
7874.0	524.42
7867.8	525.31
7861.6	525.57
7855.5	526.30
7849.3	526.71
7843.1	527.29
7837.0	527.86
7830.9	528.11
7824.7	528.69
7818.6	529.26
7812.5	530.00
7806.4	530.73
7800.3	531.15
7794.2	531.56
7788.2	531.66
7782.1	532.07
7776.0	532.32
7770.0	532.74
7764.0	532.99
7758.0	533.24
7751.9	533.65
7745.9	534.23
7739.9	534.64
7734.0	534.73
7728.0	534.49
7722.0	534.75
7716.0	535.00
7710.1	535.57
7704.2	535.98
7698.2	536.56
7692.3	537.30
7686.4	537.88
7680.5	538.29
7674.6	538.87
7668.7	539.12
7662.8	539.53
7657.0	539.29
7651.1	539.70
7645.3	539.78
7639.4	539.87
7633.6	539.95
7627.8	540.20
7622.0	540.12
7616.1	540.36
7610.4	540.44
7604.6	540.53
7598.8	540.44
7593.0	540.19
7587.3	540.43
7581.5	540.84
7575.8	541.25
7570.0	542.00
7564.3	542.24
7558.6	542.65
7552.9	543.23
7547.2	543.47
7541.5	543.55
7535.8	543.62
7530.1	543.37
7524.5	543.77
7518.8	543.52
7513.1	543.59
7507.5	543.50
7501.9	543.40
7496.3	543.64
7490.6	543.88
7485.0	543.95
7479.4	544.19
7473.8	543.93
7468.3	543.49
7462.7	543.39
7457.1	543.46
7451.6	544.20
7446.0	544.44
7440.5	544.85
7434.9	545.08
7429.4	545.32
7423.9	545.89
7418.4	546.47
7412.9	546.70
7407.4	546.77
7401.9	547.17
7396.4	547.24
7391.0	547.64
7385.5	547.37
7380.1	547.43
7374.6	547.32
7369.2	547.22
7363.8	547.45
7358.4	547.34
7352.9	547.23
7347.5	547.12
7342.1	547.01
7336.8	547.07
7331.4	547.47
7326.0	547.70
7320.6	547.58
7315.3	547.64
7309.9	548.21
7304.6	548.44
7299.3	548.67
7293.9	548.90
7288.6	548.95
7283.3	549.18
7278.0	549.76
7272.7	549.81
7267.4	550.21
7262.2	550.61
7256.9	551.01
7251.6	551.76
7246.4	551.98
7241.1	552.38
7235.9	552.96
7230.7	552.83
7225.4	553.23
7220.2	553.46
7215.0	554.03
7209.8	554.26
7204.6	554.83
7199.4	555.23
7194.2	555.11
7189.1	555.86
7183.9	555.91
7178.8	555.78
7173.6	555.66
7168.5	555.88
7163.3	556.28
7158.2	556.68
7153.1	557.07
7148.0	557.30
7142.9	557.70
7137.8	557.74
7132.7	558.14
7127.6	558.54
7122.5	558.05
7117.4	558.27
7112.4	558.14
7107.3	558.01
7102.3	558.58
7097.2	558.62
7092.2	558.67
7087.2	558.89
7082.2	559.28
7077.1	560.21
7072.1	560.25
7067.1	561.00
7062.1	561.76
7057.2	562.33
7052.2	562.91
7047.2	563.48
7042.3	564.59
7037.3	564.99
7032.3	565.74
7027.4	566.50
7022.5	566.72
7017.5	567.65
7012.6	568.59
7007.7	569.17
7002.8	569.21
6997.9	570.32
6993.0	570.54
6988.1	570.76
6983.2	570.98
6978.4	570.66
6973.5	570.70
6968.6	571.46
6963.8	571.67
6958.9	572.43
6954.1	572.29
6949.3	572.69
6944.4	573.27
6939.6	573.30
6934.8	573.88
6930.0	575.01
6925.2	576.49
6920.4	577.26
6915.6	578.56
6910.9	579.69
6906.1	580.64
6901.3	582.49
6896.6	583.81
6891.8	585.49
6887.1	586.26
6882.3	587.21
6877.6	588.16
6872.9	588.75
6868.1	589.52
6863.4	590.29
6858.7	591.43
6854.0	592.20
6849.3	592.97
6844.6	593.19
6839.9	593.97
6835.3	594.56
6830.6	594.78
6825.9	595.74
6821.3	597.07
6816.6	597.84
6812.0	598.43
6807.4	599.21
6802.7	600.17
6798.1	601.14
6793.5	601.54
6788.9	602.88
6784.3	603.84
6779.7	604.99
6775.1	605.96
6770.5	607.67
6765.9	609.20
6761.3	609.98
6756.8	611.32
6752.2	612.48
6747.6	614.01
6743.1	615.17
6738.5	616.89
6734.0	617.49
6729.5	619.03
6724.9	619.82
6720.4	621.17
6715.9	623.27
6711.4	624.25
6706.9	625.61
6702.4	626.59
6697.9	627.76
6693.4	628.56
6689.0	629.35
6684.5	630.15
6680.0	631.89
6675.6	632.31
6671.1	634.24
6666.7	635.42
6662.2	637.16
6657.8	638.34
6653.4	640.09
6648.9	641.27
6644.5	642.83
6640.1	644.58
6635.7	645.96
6631.3	647.33
6626.9	649.09
6622.5	651.04
6618.1	652.61
6613.8	654.37
6609.4	656.71
6605.0	658.47
6600.7	660.43
6596.3	662.39
6592.0	664.54
6587.6	667.46
6583.3	669.81
6578.9	672.35
6574.6	674.90
6570.3	676.49
6566.0	681.14
6561.7	686.76
6557.4	691.43
6553.1	693.22
6548.8	700.01
6544.5	703.73
6540.2	707.84
6535.9	712.73
6531.7	716.46
6527.4	722.90
6523.2	727.22
6518.9	731.94
6514.7	736.08
6510.4	741.19
6506.2	747.28
6502.0	750.47
6497.7	756.76
6493.5	763.44
6489.3	768.78
6485.1	776.26
6480.9	781.99
6476.7	791.23
6472.5	797.57
6468.3	802.36
6464.1	808.90
6459.9	815.26
6455.8	822.41
6451.6	825.08
6447.5	832.63
6443.3	837.26
6439.1	842.88
6435.0	847.91
6430.9	852.76
6426.7	862.30
6422.6	867.55
6418.5	876.72
6414.4	884.14
6410.3	890.59
6406.1	898.42
6402.0	905.86
6398.0	911.16
6393.9	920.78
6389.8	927.07
6385.7	934.36
6381.6	939.68
6377.6	948.36
6373.5	958.03
6369.4	966.73
6365.4	973.66
6361.3	982.38
6357.3	993.29
6353.2	998.86
6349.2	1010.0
6345.2	1023.7
6341.2	1036.8
6337.1	1045.4
6333.1	1056.2
6329.1	1067.8
6325.1	1081.2
6321.1	1093.2
6317.1	1104.4
6313.1	1119.3
6309.1	1131.3
6305.2	1146.4
6301.2	1158.7
6297.2	1180.4
6293.3	1193.5
6289.3	1210.4
6285.4	1229.6
6281.4	1246.4
6277.5	1269.2
6273.5	1287.2
6269.6	1310.4
6265.7	1336.5
6261.7	1357.4
6257.8	1383.2
6253.9	1403.9
6250.0	1430.0
6246.1	1459.0
6242.2	1492.3
6238.3	1516.6
6234.4	1548.6
6230.5	1580.2
6226.6	1606.3
6222.8	1633.7
6218.9	1671.9
6215.0	1699.2
6211.2	1743.8
6207.3	1784.1
6203.5	1804.7
6199.6	1831.8
6195.8	1876.3
6192.0	2053.8
6188.1	2095.7
6184.3	2137.6
6180.5	2183.7
6176.7	2223.7
6172.8	2259.7
6169.0	2295.7
6165.2	2323.6
6161.4	2372.0
6157.6	2414.2
6153.8	2440.2
6150.1	2474.4
6146.3	2496.4
6142.5	2520.4
6138.7	2554.7
6135.0	2564.5
6131.2	2586.6
6127.5	2608.7
6123.7	2620.5
6120.0	2630.3
6116.2	2648.4
6112.5	2654.1
6108.7	2670.1
6105.0	2680.0
6101.3	2691.9
6097.6	2697.7
6093.8	2684.9
6090.1	2709.2
6086.4	2710.9
6082.7	2702.2
6079.0	2703.9
6075.3	2691.0
6071.6	2676.1
6068.0	2673.6
6064.3	2664.8
6060.6	2658.2
6056.9	2657.7
6053.3	2651.0
6049.6	2631.8
6045.9	2618.9
6042.3	2614.2
6038.6	2607.5
6035.0	2602.8
6031.4	2583.5
6027.7	2564.3
6024.1	2532.4
6020.5	2519.3
6016.8	2500.0
6013.2	2478.5
6009.6	2450.7
6006.0	2427.1
6002.4	2392.9
5998.8	2365.0
5995.2	2335.0
5991.6	2294.5
5988.0	2264.4
5984.4	2236.3
5980.9	2206.2
5977.3	2165.4
5973.7	2126.7
5970.1	2097.1
5966.6	2060.8
5963.0	2022.0
5959.5	1991.2
5955.9	1960.9
5952.4	1929.6
5948.8	1740.8
5945.3	1705.3
5941.8	1682.2
5938.2	1650.4
5934.7	1598.2
5931.2	1561.0
5927.7	1535.5
5924.2	1505.4
5920.7	1480.8
5917.2	1446.0
5913.7	1416.7
5910.2	1386.3
5906.7	1357.3
5903.2	1330.9
5899.7	1302.5
5896.2	1265.8
5892.8	1242.0
5889.3	1209.2
5885.8	1178.3
5882.4	1152.3
5878.9	1128.2
5875.4	1107.0
5872.0	1085.4
5868.5	1059.9
5865.1	1044.3
5861.7	1025.2
5858.2	1002.6
5854.8	984.31
5851.4	967.27
5848.0	948.29
5844.5	931.00
5841.1	914.97
5837.7	896.57
5834.3	878.57
5830.9	863.13
5827.5	844.44
5824.1	830.69
5820.7	814.77
5817.3	800.12
5814.0	785.67
5810.6	772.72
5807.2	759.97
5803.8	748.29
5800.5	734.42
5797.1	723.58
5793.7	712.72
5790.4	702.28
5787.0	690.96
5783.7	681.58
5780.3	671.76
5777.0	661.71
5773.7	651.21
5770.3	640.91
5767.0	630.60
5763.7	621.59
5760.4	612.57
5757.1	603.76
5753.7	594.93
5750.4	585.44
5747.1	576.37
5743.8	569.49
5740.5	561.93
5737.2	554.81
5733.9	544.39
5730.7	536.80
5727.4	528.56
5724.1	520.30
5720.8	512.47
5717.6	503.97
5714.3	497.00
5711.0	488.26
5707.8	476.65
5704.5	448.95
5701.3	421.43
5698.0	420.57
5694.8	410.88
5691.5	405.81
5688.3	400.74
5685.0	395.89
5681.8	391.47
5678.6	387.04
5675.4	382.83
5672.1	378.40
5668.9	374.18
5665.7	370.40
5662.5	366.61
5659.3	363.05
5656.1	359.25
5652.9	355.90
5649.7	352.32
5646.5	348.96
5643.3	346.04
5640.2	342.89
5637.0	339.96
5633.8	337.03
5630.6	334.32
5627.5	331.61
5624.3	328.89
5621.1	326.39
5618.0	323.89
5614.8	321.61
5611.7	319.33
5608.5	317.04
5605.4	314.98
5602.2	312.69
5599.1	310.62
5596.0	308.55
5592.8	306.70
5589.7	304.85
5586.6	303.22
5583.5	301.36
5580.4	299.95
5577.2	298.32
5574.1	296.91
5571.0	295.27
5567.9	294.08
5564.8	292.43
5561.7	291.01
5558.6	289.59
5555.6	288.17
5552.5	286.97
5549.4	285.77
5546.3	284.35
5543.2	283.14
5540.2	282.17
5537.1	280.74
5534.0	279.53
5531.0	278.55
5527.9	277.34
5524.9	276.35
5521.8	275.14
5518.8	274.38
5515.7	273.17
5512.7	272.40
5509.6	271.19
5506.6	270.42
5503.6	269.43
5500.6	268.44
5497.5	267.44
5494.5	266.67
5491.5	265.68
5488.5	264.68
5485.5	263.68
5482.5	262.90
5479.5	261.90
5476.5	261.13
5473.5	260.12
5470.5	259.12
5467.5	258.34
5464.5	257.56
5461.5	256.78
5458.5	255.77
5455.5	254.99
5452.6	254.21
5449.6	253.65
5446.6	252.87
5443.7	252.31
5440.7	251.53
5437.7	250.97
5434.8	250.41
5431.8	249.85
5428.9	249.30
5425.9	248.74
5423.0	248.18
5420.1	247.62
5417.1	247.05
5414.2	246.49
5411.3	246.16
5408.3	245.60
5405.4	245.26
5402.5	244.70
5399.6	244.13
5396.7	243.80
5393.7	243.46
5390.8	243.36
5387.9	243.03
5385.0	242.92
5382.1	242.82
5379.2	242.49
5376.3	242.38
5373.5	242.28
5370.6	242.18
5367.7	242.07
5364.8	241.97
5361.9	241.86
5359.1	241.76
5356.2	241.89
5353.3	241.78
5350.5	241.68
5347.6	241.81
5344.7	241.93
5341.9	242.06
5339.0	242.19
5336.2	242.56
5333.3	242.69
5330.5	242.82
5327.7	243.18
5324.8	243.31
5322.0	243.68
5319.1	243.81
5316.3	243.94
5313.5	244.07
5310.7	244.43
5307.9	244.80
5305.0	244.93
5302.2	245.30
5299.4	245.43
5296.6	245.56
5293.8	245.69
5291.0	245.82
5288.2	246.18
5285.4	246.55
5282.6	246.68
5279.8	246.81
5277.0	247.18
5274.3	247.55
5271.5	248.16
5268.7	248.29
5265.9	248.66
5263.2	248.79
5260.4	249.16
5257.6	249.29
5254.9	249.42
5252.1	249.79
5249.3	249.92
5246.6	250.05
5243.8	250.18
5241.1	250.56
5238.3	250.69
5235.6	250.82
5232.9	250.95
5230.1	251.08
5227.4	251.45
5224.7	251.58
5221.9	251.96
5219.2	252.09
5216.5	252.22
5213.8	252.59
5211.0	252.72
5208.3	253.10
5205.6	253.47
5202.9	253.84
5200.2	254.22
5197.5	254.59
5194.8	254.72
5192.1	255.10
5189.4	255.47
5186.7	255.85
5184.0	256.46
5181.3	256.84
5178.7	257.22
5176.0	257.83
5173.3	258.21
5170.6	258.83
5168.0	259.45
5165.3	259.83
5162.6	260.45
5160.0	261.07
5157.3	261.69
5154.6	262.32
5152.0	262.94
5149.3	263.81
5146.7	264.43
5144.0	265.05
5141.4	265.92
5138.7	266.55
5136.1	267.18
5133.5	268.05
5130.8	268.92
5128.2	269.79
5125.6	270.67
5123.0	271.54
5120.3	272.42
5117.7	273.54
5115.1	274.42
5112.5	275.29
5109.9	276.42
5107.3	277.54
5104.6	278.67
5102.0	279.80
5099.4	280.93
5096.8	282.06
5094.2	283.19
5091.6	284.56
5089.1	285.70
5086.5	286.83
5083.9	287.97
5081.3	289.35
5078.7	290.48
5076.1	291.62
5073.6	292.76
5071.0	293.90
5068.4	295.29
5065.9	296.43
5063.3	297.57
5060.7	298.72
5058.2	299.86
5055.6	301.01
5053.1	302.16
5050.5	303.30
5048.0	304.45
5045.4	305.60
5042.9	306.75
5040.3	307.66
5037.8	308.56
5035.2	309.46
5032.7	310.37
5030.2	311.52
5027.7	312.68
5025.1	313.59
5022.6	315.00
5020.1	316.16
5017.6	317.07
5015.0	318.23
5012.5	319.14
5010.0	320.30
5007.5	321.22
5005.0	322.38
5002.5	323.30
5000.0	324.46
4997.5	325.13
4995.0	326.30
4992.5	327.47
4990.0	328.39
4987.5	329.56
4985.0	330.98
4982.6	331.90
4980.1	332.83
4977.6	333.50
4975.1	334.42
4972.7	335.35
4970.2	336.27
4967.7	336.94
4965.2	338.12
4962.8	338.80
4960.3	339.47
4957.9	340.65
4955.4	341.58
4952.9	342.26
4950.5	343.45
4948.0	344.38
4945.6	345.56
4943.2	346.75
4940.7	348.20
4938.3	349.39
4935.8	350.83
4933.4	351.77
4931.0	353.47
4928.5	354.92
4926.1	356.37
4923.7	357.57
4921.3	358.51
4918.8	359.71
4916.4	360.91
4914.0	362.11
4911.6	362.80
4909.2	364.25
4906.8	365.71
4904.4	366.66
4902.0	367.61
4899.6	369.07
4897.2	370.28
4894.8	370.98
4892.4	372.44
4890.0	373.39
4887.6	374.86
4885.2	375.82
4882.8	377.03
4880.4	377.99
4878.0	378.94
4875.7	380.16
4873.3	381.38
4870.9	382.08
4868.5	383.04
4866.2	384.00
4863.8	384.45
4861.4	385.67
4859.1	386.63
4856.7	387.59
4854.4	388.30
4852.0	389.78
4849.7	390.75
4847.3	391.98
4845.0	392.95
4842.6	394.17
4840.3	395.14
4837.9	395.85
4835.6	397.08
4833.3	397.80
4830.9	398.77
4828.6	399.22
4826.3	399.94
4823.9	400.91
4821.6	401.63
4819.3	402.60
4817.0	403.06
4814.6	403.25
4812.3	403.71
4810.0	404.42
4807.7	404.88
4805.4	405.33
4803.1	405.79
4800.8	406.25
4798.5	406.44
4796.2	407.42
4793.9	407.88
4791.6	408.60
4789.3	408.53
4787.0	408.73
4784.7	408.66
4782.4	408.86
4780.1	409.05
4777.8	408.99
4775.5	409.18
4773.3	409.38
4771.0	410.10
4768.7	410.82
4766.4	411.02
4764.2	410.95
4761.9	411.15
4759.6	411.34
4757.4	411.80
4755.1	412.00
4752.9	411.93
4750.6	412.13
4748.3	412.32
4746.1	412.78
4743.8	412.98
4741.6	412.91
4739.3	412.57
4737.1	412.50
4734.8	412.43
4732.6	411.83
4730.4	411.76
4728.1	412.22
4725.9	412.42
4723.7	412.35
4721.4	412.81
4719.2	413.00
4717.0	413.20
4714.8	413.39
4712.5	413.59
4710.3	414.05
4708.1	414.51
4705.9	414.71
4703.7	414.90
4701.5	415.10
4699.2	415.02
4697.0	415.22
4694.8	415.15
4692.6	415.07
4690.4	414.46
4688.2	413.85
4686.0	413.24
4683.8	412.63
4681.6	412.02
4679.5	411.14
4677.3	410.53
4675.1	410.45
4672.9	409.83
4670.7	409.22
4668.5	408.87
4666.4	408.52
4664.2	408.18
4662.0	408.10
4659.8	408.56
4657.7	408.48
4655.5	408.40
4653.3	408.32
4651.2	407.70
4649.0	407.08
4646.8	406.99
4644.7	406.64
4642.5	406.29
4640.4	405.67
4638.2	405.04
4636.1	404.42
4633.9	403.52
4631.8	402.89
4629.6	401.99
4627.5	400.82
4625.3	399.92
4623.2	399.29
4621.1	398.11
4618.9	397.48
4616.8	396.58
4614.7	395.67
4612.5	394.76
4610.4	393.86
4608.3	393.49
4606.2	392.31
4604.1	391.40
4601.9	390.21
4599.8	389.03
4597.7	388.11
4595.6	387.20
4593.5	386.28
4591.4	385.09
4589.3	383.90
4587.2	382.98
4585.1	382.06
4583.0	381.41
4580.9	380.21
4578.8	379.01
4576.7	378.09
4574.6	377.16
4572.5	376.24
4570.4	375.31
4568.3	374.38
4566.2	373.18
4564.1	372.24
4562.0	371.31
4560.0	370.66
4557.9	369.72
4555.8	368.51
4553.7	367.02
4551.7	366.09
4549.6	365.15
4547.5	364.21
4545.5	363.54
4543.4	362.05
4541.3	360.83
4539.3	359.61
4537.2	358.94
4535.1	358.00
4533.1	357.33
4531.0	356.10
4529.0	355.16
4526.9	354.21
4524.9	353.53
4522.8	352.58
4520.8	351.91
4518.8	350.68
4516.7	349.72
4514.7	348.77
4512.6	348.09
4510.6	346.85
4508.6	345.62
4506.5	344.66
4504.5	343.69
4502.5	342.73
4500.5	342.05
4498.4	340.81
4496.4	339.28
4494.4	338.32
4492.4	337.35
4490.3	336.66
4488.3	335.69
4486.3	334.72
4484.3	334.03
4482.3	332.78
4480.3	332.09
4478.3	331.12
4476.3	330.14
4474.3	328.88
4472.3	327.91
4470.3	326.93
4468.3	325.95
4466.3	324.97
4464.3	323.99
4462.3	323.01
4460.3	322.03
4458.3	321.32
4456.3	320.34
4454.3	319.35
4452.4	318.37
4450.4	317.38
4448.4	316.39
4446.4	315.40
4444.4	314.41
4442.5	313.14
4440.5	311.86
4438.5	310.58
4436.6	309.02
4434.6	308.02
4432.6	306.74
4430.7	305.75
4428.7	304.75
4426.7	303.46
4424.8	302.46
4422.8	301.17
4420.9	300.17
4418.9	299.16
4417.0	297.87
4415.0	296.58
4413.1	295.57
4411.1	294.28
4409.2	293.27
4407.2	292.26
4405.3	290.96
4403.3	289.95
4401.4	288.65
4399.5	287.35
4397.5	286.33
4395.6	285.26
4393.7	284.24
4391.7	283.25
4389.8	282.37
4387.9	281.32
4386.0	280.24
4384.0	279.21
4382.1	278.13
4380.2	277.08
4378.3	276.20
4376.4	275.51
4374.5	274.60
4372.5	273.71
4370.6	272.83
4368.7	271.77
4366.8	270.91
4364.9	270.16
4363.0	269.44
4361.1	268.81
4359.2	268.04
4357.3	267.26
4355.4	266.57
4353.5	265.87
4351.6	265.24
4349.7	264.52
4347.8	263.79
4345.9	262.78
4344.0	261.88
4342.2	260.93
4340.3	260.11
4338.4	259.24
4336.5	258.51
4334.6	257.73
4332.8	257.05
4330.9	256.32
4329.0	255.19
4327.1	254.43
4325.3	253.84
4323.4	252.99
4321.5	252.55
4319.7	252.07
4317.8	251.48
4315.9	250.84
4314.1	250.27
4312.2	249.65
4310.3	249.09
4308.5	248.41
4306.6	247.70
4304.8	246.82
4302.9	246.28
4301.1	245.48
4299.2	244.80
4297.4	243.85
4295.5	242.72
4293.7	241.66
4291.8	240.88
4290.0	239.93
4288.2	238.83
4286.3	237.70
4284.5	236.52
4282.7	235.68
4280.8	234.75
4279.0	233.85
4277.2	233.04
4275.3	232.14
4273.5	231.18
4271.7	230.64
4269.9	230.03
4268.0	229.24
4266.2	228.55
4264.4	227.97
4262.6	227.38
4260.8	226.60
4258.9	225.96
4257.1	225.05
4255.3	224.14
4253.5	223.35
4251.7	222.71
4249.9	222.18
4248.1	221.53
4246.3	220.53
4244.5	219.41
4242.7	218.44
4240.9	217.47
4239.1	216.52
4237.3	215.72
4235.5	215.04
4233.7	214.36
4231.9	213.92
4230.1	213.35
4228.3	212.91
4226.5	212.29
4224.8	211.75
4223.0	211.22
4221.2	210.62
4219.4	209.85
4217.6	209.01
4215.9	208.47
4214.1	207.99
4212.3	207.54
4210.5	207.27
4208.8	206.76
4207.0	206.10
4205.2	205.29
4203.4	204.51
4201.7	203.76
4199.9	203.16
4198.2	202.62
4196.4	202.07
4194.6	201.62
4192.9	201.16
4191.1	200.77
4189.4	200.28
4187.6	199.59
4185.9	199.04
4184.1	198.61
4182.4	198.06
4180.6	197.37
4178.9	196.82
4177.1	196.21
4175.4	195.66
4173.6	195.14
4171.9	194.53
4170.1	193.79
4168.4	193.24
4166.7	192.69
4164.9	192.07
4163.2	191.52
4161.5	191.03
4159.7	190.62
4158.0	190.19
4156.3	189.60
4154.5	188.89
4152.8	188.43
4151.1	187.96
4149.4	187.52
4147.7	186.87
4145.9	186.35
4144.2	185.85
4142.5	185.41
4140.8	184.91
4139.1	184.44
4137.4	183.91
4135.6	183.25
4133.9	182.63
4132.2	181.98
4130.5	181.47
4128.8	180.94
4127.1	180.47
4125.4	179.87
4123.7	179.24
4122.0	178.62
4120.3	178.14
4118.6	177.45
4116.9	176.79
4115.2	176.07
4113.5	175.50
4111.8	175.03
4110.2	174.52
4108.5	173.79
4106.8	173.19
4105.1	172.56
4103.4	171.96
4101.7	171.38
4100.0	170.90
4098.4	170.39
4096.7	169.72
4095.0	169.15
4093.3	168.57
4091.7	168.18
4090.0	167.60
4088.3	167.00
4086.6	166.36
4085.0	165.72
4083.3	165.08
4081.6	164.50
4080.0	164.04
4078.3	163.43
4076.6	163.00
4075.0	162.52
4073.3	162.06
4071.7	161.57
4070.0	161.02
4068.3	160.43
4066.7	159.88
4065.0	159.36
4063.4	158.90
4061.7	158.53
4060.1	158.19
4058.4	157.82
4056.8	157.42
4055.2	157.02
4053.5	156.71
4051.9	156.37
4050.2	155.85
4048.6	155.60
4046.9	155.35
4045.3	155.07
4043.7	154.76
4042.0	154.48
4040.4	154.30
4038.8	154.14
4037.1	153.95
4035.5	153.70
4033.9	153.39
4032.3	153.08
4030.6	152.74
4029.0	152.33
4027.4	151.96
4025.8	151.64
4024.1	151.27
4022.5	151.01
4020.9	150.64
4019.3	150.29
4017.7	149.82
4016.1	149.35
4014.5	148.94
4012.8	148.50
4011.2	148.09
4009.6	147.80
4008.0	147.45
4006.4	147.04
4004.8	146.60
4003.2	146.25
4001.6	145.99
4000.0	145.64
3998.4	145.23
3996.8	144.88
3995.2	144.47
3993.6	144.12
3992.0	143.73
3990.4	143.32
3988.8	143.00
3987.2	142.61
3985.7	142.16
3984.1	141.84
3982.5	141.39
3980.9	140.88
3979.3	140.40
3977.7	139.89
3976.1	139.38
3974.6	138.99
3973.0	138.63
3971.4	138.15
3969.8	137.73
3968.3	137.25
3966.7	136.79
3965.1	136.40
3963.5	135.95
3962.0	135.43
3960.4	134.98
3958.8	134.59
3957.3	134.17
3955.7	133.84
3954.1	133.45
3952.6	133.09
3951.0	132.76
3949.4	132.33
3947.9	132.00
3946.3	131.74
3944.8	131.40
3943.2	131.01
3941.7	130.74
3940.1	130.48
3938.6	130.27
3937.0	130.10
3935.5	129.86
3933.9	129.53
3932.4	129.26
3930.8	128.99
3929.3	128.76
3927.7	128.58
3926.2	128.22
3924.6	127.92
3923.1	127.68
3921.6	127.47
3920.0	127.30
3918.5	127.12
3917.0	126.92
3915.4	126.71
3913.9	126.57
3912.4	126.33
3910.8	126.15
3909.3	126.04
3907.8	125.93
3906.2	125.82
3904.7	125.74
3903.2	125.69
3901.7	125.61
3900.2	125.47
3898.6	125.35
3897.1	125.11
3895.6	124.97
3894.1	124.79
3892.6	124.64
3891.1	124.47
3889.5	124.26
3888.0	124.11
3886.5	124.00
3885.0	123.82
3883.5	123.64
3882.0	123.50
3880.5	123.22
3879.0	123.01
3877.5	122.83
3876.0	122.58
3874.5	122.47
3873.0	122.42
3871.5	122.34
3870.0	122.22
3868.5	122.17
3867.0	122.12
3865.5	121.97
3864.0	121.86
3862.5	121.65
3861.0	121.37
3859.5	121.22
3858.0	121.04
3856.5	120.95
3855.1	120.77
3853.6	120.66
3852.1	120.44
3850.6	120.32
3849.1	120.11
3847.6	120.03
3846.2	119.88
3844.7	119.63
3843.2	119.48
3841.7	119.33
3840.2	119.18
3838.8	119.16
3837.3	119.07
3835.8	119.02
3834.4	118.97
3832.9	118.91
3831.4	118.83
3830.0	118.68
3828.5	118.59
3827.0	118.50
3825.6	118.39
3824.1	118.33
3822.6	118.31
3821.2	118.26
3819.7	118.21
3818.3	118.22
3816.8	118.13
3815.3	118.18
3813.9	118.22
3812.4	118.23
3811.0	118.25
3809.5	118.29
3808.1	118.40
3806.6	118.51
3805.2	118.56
3803.7	118.70
3802.3	118.75
3800.8	118.92
3799.4	119.04
3797.9	119.11
3796.5	119.23
3795.1	119.37
3793.6	119.55
3792.2	119.76
3790.8	119.87
3789.3	119.98
3787.9	120.23
3786.4	120.44
3785.0	120.58
3783.6	120.83
3782.1	120.97
3780.7	121.25
3779.3	121.46
3777.9	121.64
3776.4	121.92
3775.0	122.13
3773.6	122.35
3772.2	122.53
3770.7	122.71
3769.3	122.89
3767.9	123.10
3766.5	123.28
3765.1	123.43
3763.6	123.57
3762.2	123.79
3760.8	123.87
3759.4	124.08
3758.0	124.26
3756.6	124.37
3755.2	124.52
3753.8	124.77
3752.3	124.98
3750.9	125.06
3749.5	125.24
3748.1	125.29
3746.7	125.44
3745.3	125.62
3743.9	125.80
3742.5	125.91
3741.1	126.26
3739.7	126.55
3738.3	126.83
3736.9	127.08
3735.5	127.33
3734.1	127.58
3732.7	127.79
3731.3	128.08
3730.0	128.23
3728.6	128.51
3727.2	128.76
3725.8	129.08
3724.4	129.36
3723.0	129.68
3721.6	129.96
3720.2	130.22
3718.9	130.47
3717.5	130.65
3716.1	130.83
3714.7	131.15
3713.3	131.47
3712.0	131.79
3710.6	132.11
3709.2	132.53
3707.8	132.99
3706.4	133.28
3705.1	133.70
3703.7	134.09
3702.3	134.48
3701.0	134.83
3699.6	135.29
3698.2	135.75
3696.9	136.21
3695.5	136.73
3694.1	137.23
3692.8	137.68
3691.4	138.28
3690.0	138.84
3688.7	139.34
3687.3	139.86
3686.0	140.32
3684.6	140.89
3683.2	141.35
3681.9	141.88
3680.5	142.38
3679.2	142.91
3677.8	143.61
3676.5	144.24
3675.1	144.74
3673.8	145.37
3672.4	146.08
3671.1	146.75
3669.7	147.38
3668.4	148.12
3667.0	148.76
3665.7	149.33
3664.3	149.93
3663.0	150.57
3661.7	151.21
3660.3	151.95
3659.0	152.69
3657.6	153.33
3656.3	153.90
3655.0	154.55
3653.6	155.26
3652.3	155.93
3651.0	156.57
3649.6	157.32
3648.3	158.13
3647.0	158.98
3645.6	159.80
3644.3	160.41
3643.0	161.16
3641.7	161.94
3640.3	162.80
3639.0	163.65
3637.7	164.43
3636.4	165.39
3635.0	166.07
3633.7	166.90
3632.4	167.72
3631.1	168.57
3629.8	169.40
3628.4	170.22
3627.1	171.04
3625.8	171.77
3624.5	172.59
3623.2	173.49
3621.9	174.35
3620.6	175.07
3619.3	175.86
3617.9	176.79
3616.6	177.66
3615.3	178.42
3614.0	179.18
3612.7	179.90
3611.4	180.77
3610.1	181.63
3608.8	182.64
3607.5	183.57
3606.2	184.65
3604.9	185.73
3603.6	186.63
3602.3	187.64
3601.0	188.65
3599.7	189.77
3598.4	190.74
3597.1	191.93
3595.8	193.05
3594.5	193.96
3593.2	195.07
3592.0	196.19
3590.7	197.28
3589.4	198.37
3588.1	199.59
3586.8	200.82
3585.5	201.91
3584.2	203.03
3582.9	204.09
3581.7	205.25
3580.4	206.55
3579.1	207.75
3577.8	209.05
3576.5	210.22
3575.3	211.49
3574.0	212.76
3572.7	213.96
3571.4	215.37
3570.2	216.68
3568.9	218.06
3567.6	219.48
3566.3	221.04
3565.1	222.35
3563.8	223.77
3562.5	225.51
3561.3	227.03
3560.0	228.60
3558.7	230.16
3557.5	231.80
3556.2	233.47
3554.9	235.07
3553.7	236.75
3552.4	238.35
3551.1	240.24
3549.9	242.06
3548.6	243.67
3547.4	245.39
3546.1	246.96
3544.8	248.64
3543.6	250.43
3542.3	252.08
3541.1	253.88
3539.8	255.71
3538.6	257.54
3537.3	259.44
3536.1	261.24
3534.8	262.97
3533.6	264.77
3532.3	266.64
3531.1	268.33
3529.8	270.14
3528.6	271.98
3527.3	273.85
3526.1	275.77
3524.9	277.86
3523.6	279.78
3522.4	281.77
3521.1	283.87
3519.9	285.97
3518.6	287.89
3517.4	290.06
3516.2	292.20
3514.9	294.41
3513.7	296.55
3512.5	298.73
3511.2	300.99
3510.0	303.35
3508.8	305.67
3507.5	308.00
3506.3	310.30
3505.1	312.59
3503.9	314.93
3502.6	317.22
3501.4	319.56
3500.2	321.97
3499.0	324.45
3497.7	326.94
3496.5	329.57
3495.3	332.31
3494.1	334.65
3492.8	337.22
3491.6	340.03
3490.4	342.64
3489.2	345.31
3488.0	348.06
3486.8	350.64
3485.5	353.25
3484.3	355.86
3483.1	358.83
3481.9	361.63
3480.7	364.64
3479.5	368.02
3478.3	370.68
3477.1	373.70
3475.8	376.36
3474.6	379.38
3473.4	382.05
3472.2	385.07
3471.0	388.47
3469.8	391.50
3468.6	394.89
3467.4	397.93
3466.2	401.33
3465.0	404.73
3463.8	407.78
3462.6	411.55
3461.4	414.59
3460.2	418.01
3459.0	421.42
3457.8	424.84
3456.6	428.62
3455.4	431.68
3454.2	435.46
3453.0	438.89
3451.8	442.32
3450.7	446.11
3449.5	449.54
3448.3	452.98
3447.1	456.78
3445.9	460.22
3444.7	464.39
3443.5	468.20
3442.3	472.38
3441.2	476.19
3440.0	480.37
3438.8	484.56
3437.6	488.75
3436.4	493.30
3435.2	497.86
3434.1	502.06
3432.9	505.89
3431.7	510.09
3430.5	513.93
3429.4	518.14
3428.2	522.72
3427.0	527.66
3425.8	532.61
3424.7	536.46
3423.5	541.05
3422.3	546.38
3421.1	550.97
3420.0	555.57
3418.8	560.91
3417.6	566.25
3416.5	570.85
3415.3	575.83
3414.1	581.18
3413.0	586.17
3411.8	591.89
3410.6	597.25
3409.5	602.61
3408.3	608.35
3407.2	614.09
3406.0	619.10
3404.8	624.10
3403.7	629.49
3402.5	634.50
3401.4	641.37
3400.2	647.13
3399.0	652.89
3397.9	657.18
3396.7	661.48
3395.6	667.99
3394.4	673.40
3393.3	676.59
3392.1	682.38
3391.0	688.17
3389.8	692.11
3388.7	695.31
3387.5	700.00
3386.4	703.58
3385.2	708.27
3384.1	712.22
3382.9	715.44
3381.8	719.39
3380.7	722.98
3379.5	727.32
3378.4	732.03
3377.2	737.48
3376.1	745.18
3375.0	753.99
3373.8	763.93
3372.7	773.13
3371.5	784.94
3370.4	797.51
3369.3	811.58
3368.1	825.29
3367.0	837.51
3365.9	850.11
3364.7	865.34
3363.6	878.70
3362.5	892.45
3361.3	906.21
3360.2	920.73
3359.1	934.13
3358.0	946.79
3356.8	957.59
3355.7	969.15
3354.6	980.71
3353.5	992.28
3352.3	1004.6
3351.2	1016.2
3350.1	1028.9
3349.0	1043.1
3347.8	1058.5
3346.7	1073.5
3345.6	1088.9
3344.5	1105.8
3343.4	1121.9
3342.2	1138.1
3341.1	1153.5
3340.0	1170.8
3338.9	1229.2
3337.8	1246.9
3336.7	1264.7
3335.6	1283.6
3334.4	1303.2
3333.3	1321.4
3332.2	1339.5
3331.1	1356.2
3330.0	1374.0
3328.9	1392.2
3327.8	1408.5
3326.7	1425.2
3325.6	1442.7
3324.5	1457.9
3323.4	1473.5
3322.3	1490.7
3321.2	1506.3
3320.1	1521.2
3319.0	1535.3
3317.9	1549.8
3316.7	1563.6
3315.6	1576.3
3314.6	1590.1
3313.5	1603.5
3312.4	1615.4
3311.3	1627.7
3310.2	1640.0
3309.1	1651.9
3308.0	1664.3
3306.9	1675.8
3305.8	1687.8
3304.7	1698.6
3303.6	1709.1
3302.5	1719.1
3301.4	1728.5
3300.3	1736.6
3299.2	1744.8
3298.2	1753.4
3297.1	1763.5
3296.0	1772.9
3294.9	1780.7
3293.8	1788.2
3292.7	1796.0
3291.6	1803.5
3290.6	1811.3
3289.5	1819.9
3288.4	1828.9
3287.3	1837.2
3286.2	1845.8
3285.2	1856.4
3284.1	1866.2
3283.0	1878.6
3281.9	1891.1
3280.8	1903.6
3279.8	1916.5
3278.7	1928.3
3277.6	1940.8
3276.5	1953.3
3275.5	1965.8
3274.4	1979.9
3273.3	1995.5
3272.3	2011.2
3271.2	2027.6
3270.1	2043.6
3269.0	2061.2
3268.0	2078.4
3266.9	2095.6
3265.8	2114.8
3264.8	2133.5
3263.7	2152.3
3262.6	2170.0
3261.6	2189.6
3260.5	2210.7
3259.5	2233.0
3258.4	2256.1
3257.3	2280.0
3256.3	2302.4
3255.2	2326.3
3254.1	2349.0
3253.1	2373.8
3252.0	2400.0
3251.0	2426.7
3249.9	2453.8
3248.9	2480.9
3247.8	2508.4
3246.8	2536.3
3245.7	2565.4
3244.6	2594.5
3243.6	2624.4
3242.5	2652.4
3241.5	2678.8
3240.4	2706.4
3239.4	2731.8
3238.3	2757.1
3237.3	2784.8
3236.2	2812.8
3235.2	2839.8
3234.2	2867.1
3233.1	2894.1
3232.1	2922.6
3231.0	2949.2
3230.0	2977.8
3228.9	3004.5
3227.9	3033.1
3226.8	3060.5
3225.8	3090.0
3224.8	3117.9
3223.7	3146.9
3222.7	3176.4
3221.6	3204.7
3220.6	3230.7
3219.6	3256.8
3218.5	3282.4
3217.5	3306.5
3216.5	3331.0
3215.4	3356.7
3214.4	3382.4
3213.4	3408.1
3212.3	3433.5
3211.3	3458.5
3210.3	3482.3
3209.2	3507.7
3208.2	3532.7
3207.2	3558.5
3206.2	3583.9
3205.1	3610.2
3204.1	3636.4
3203.1	3663.9
3202.0	3691.4
3201.0	3720.4
3200.0	3749.1
3199.0	3779.8
3198.0	3809.3
3196.9	3834.8
3195.9	3862.0
3194.9	3889.6
3193.9	3917.2
3192.8	3943.7
3191.8	3972.5
3190.8	4001.3
3189.8	4030.2
3188.8	4059.0
3187.8	4087.9
3186.7	4116.8
3185.7	4145.8
3184.7	4174.7
3183.7	4203.7
3182.7	4240.5
3181.7	4273.5
3180.7	4306.4
3179.7	4343.4
3178.6	4372.4
3177.6	4405.5
3176.6	4442.5
3175.6	4479.5
3174.6	4512.6
3173.6	4549.6
3172.6	4582.8
3171.6	4623.9
3170.6	4657.0
3169.6	4694.2
3168.6	4735.3
3167.6	4772.5
3166.6	4809.8
3165.6	4851.0
3164.6	4892.2
3163.6	4937.5
3162.6	4982.7
3161.6	5028.0
3160.6	5073.4
3159.6	5118.7
3158.6	5160.1
3157.6	5205.5
3156.6	5243.0
3155.6	5292.4
3154.6	5337.9
3153.6	5383.5
3152.6	5429.0
3151.6	5470.6
3150.6	5520.2
3149.6	5565.8
3148.6	5611.5
3147.6	5657.1
3146.6	5702.8
3145.6	5748.6
3144.7	5794.3
3143.7	5840.1
3142.7	5886.0
3141.7	5931.8
3140.7	5981.7
3139.7	6023.6
3138.7	6065.5
3137.7	6107.5
3136.8	6145.4
3135.8	6187.4
3134.8	6229.5
3133.8	6279.5
3132.8	6321.6
3131.9	6367.7
3130.9	6409.9
3129.9	6448.0
3128.9	6490.2
3127.9	6532.4
3127.0	6574.6
3126.0	6616.9
3125.0	6659.2
3124.0	6701.5
3123.0	6739.8
3122.1	6778.1
3121.1	6816.5
3120.1	6854.8
3119.2	6893.2
3118.2	6931.7
3117.2	6970.1
3116.2	7000.5
3115.3	7039.0
3114.3	7073.5
3113.3	7116.0
3112.4	7158.6
3111.4	7197.2
3110.4	7235.8
3109.5	7270.4
3108.5	7305.0
3107.5	7339.6
3106.6	7374.2
3105.6	7417.0
3104.6	7455.7
3103.7	7494.5
3102.7	7533.3
3101.7	7568.0
3100.8	7598.7
3099.8	7637.6
3098.9	7676.4
3097.9	7703.1
3096.9	7733.9
3096.0	7768.8
3095.0	7807.7
3094.1	7846.7
3093.1	7877.6
3092.1	7912.5
3091.2	7947.5
3090.2	7978.4
3089.3	8013.4
3088.3	8044.4
3087.4	8075.4
3086.4	8102.3
3085.5	8133.3
3084.5	8168.4
3083.6	8207.6
3082.6	8246.8
3081.7	8282.0
3080.7	8325.3
3079.8	8364.6
3078.8	8403.9
3077.9	8447.3
3076.9	8490.8
3076.0	8517.9
3075.0	8553.2
3074.1	8600.8
3073.1	8644.3
3072.2	8679.7
3071.3	8715.1
3070.3	8746.4
3069.4	8786.0
3068.4	8817.3
3067.5	8852.8
3066.5	8884.2
3065.6	8907.4
3064.7	8930.7
3063.7	8958.0
3062.8	8993.6
3061.8	9025.1
3060.9	9052.5
3060.0	9084.0
3059.0	9111.4
3058.1	9143.0
3057.2	9166.3
3056.2	9189.7
3055.3	9200.7
3054.4	9211.8
3053.4	9226.9
3052.5	9254.4
3051.6	9282.0
3050.6	9305.4
3049.7	9324.7
3048.8	9344.0
3047.9	9375.8
3046.9	9403.4
3046.0	9426.8
3045.1	9454.5
3044.1	9482.1
3043.2	9509.8
3042.3	9529.2
3041.4	9565.2
3040.4	9597.0
3039.5	9616.5
3038.6	9635.9
3037.7	9663.7
3036.7	9683.2
3035.8	9702.7
3034.9	9722.2
3034.0	9733.4
3033.1	9757.1
3032.1	9772.5
3031.2	9796.2
3030.3	9824.0
3029.4	9856.0
3028.5	9879.7
3027.6	9907.6
3026.6	9931.4
3025.7	9971.8
3024.8	9995.6
3023.9	10019
3023.0	10047
3022.1	10071
3021.1	10091
3020.2	10115
3019.3	10151
3018.4	10192
3017.5	10224
3016.6	10248
3015.7	10276
3014.8	10296
3013.9	10320
3013.0	10348
3012.0	10376
3011.1	10396
3010.2	10411
3009.3	10435
3008.4	10468
3007.5	10492
3006.6	10512
3005.7	10536
3004.8	10560
3003.9	10588
3003.0	10616
3002.1	10645
3001.2	10673
3000.3	10701
2999.4	10738
2998.5	10787
2997.6	10832
2996.7	10869
2995.8	10894
2994.9	10914
2994.0	10938
2993.1	10970
2992.2	11012
2991.3	11048
2990.4	11094
2989.5	11127
2988.6	11155
2987.8	11188
2986.9	11216
2986.0	11245
2985.1	11282
2984.2	11311
2983.3	11335
2982.4	11368
2981.5	11401
2980.6	11434
2979.7	11463
2978.9	11483
2978.0	11524
2977.1	11561
2976.2	11569
2975.3	11585
2974.4	11614
2973.5	11639
2972.7	11659
2971.8	11696
2970.9	11725
2970.0	11767
2969.1	11800
2968.2	11824
2967.4	11836
2966.5	11865
2965.6	11882
2964.7	11906
2963.8	11914
2963.0	11913
2962.1	11938
2961.2	11954
2960.3	11958
2959.5	11974
2958.6	11974
2957.7	11990
2956.8	12015
2956.0	12018
2955.1	12017
2954.2	12025
2953.3	12029
2952.5	12024
2951.6	12015
2950.7	12022
2949.9	12039
2949.0	12064
2948.1	12080
2947.2	12071
2946.4	12083
2945.5	12108
2944.6	12116
2943.8	12115
2942.9	12131
2942.0	12169
2941.2	12194
2940.3	12202
2939.4	12214
2938.6	12226
2937.7	12242
2936.9	12250
2936.0	12262
2935.1	12262
2934.3	12253
2933.4	12222
2932.6	12225
2931.7	12229
2930.8	12215
2930.0	12219
2929.1	12223
2928.3	12218
2927.4	12200
2926.5	12182
2925.7	12181
2924.8	12176
2924.0	12145
2923.1	12127
2922.3	12144
2921.4	12134
2920.6	12121
2919.7	12120
2918.9	12119
2918.0	12123
2917.2	12113
2916.3	12100
2915.5	12086
2914.6	12051
2913.8	12037
2912.9	12040
2912.1	12048
2911.2	12039
2910.4	12016
2909.5	11998
2908.7	11985
2907.8	11975
2907.0	11953
2906.1	11930
2905.3	11899
2904.4	11881
2903.6	11837
2902.8	11810
2901.9	11805
2901.1	11782
2900.2	11768
2899.4	11759
2898.6	11740
2897.7	11722
2896.9	11695
2896.0	11672
2895.2	11632
2894.4	11610
2893.5	11600
2892.7	11573
2891.8	11542
2891.0	11501
2890.2	11466
2889.3	11447
2888.5	11424
2887.7	11393
2886.8	11357
2886.0	11317
2885.2	11276
2884.3	11236
2883.5	11191
2882.7	11173
2881.8	11150
2881.0	11109
2880.2	11073
2879.4	11042
2878.5	11006
2877.7	10969
2876.9	10929
2876.0	10884
2875.2	10826
2874.4	10777
2873.6	10718
2872.7	10673
2871.9	10633
2871.1	10596
2870.3	10573
2869.4	10532
2868.6	10487
2867.8	10438
2867.0	10392
2866.2	10338
2865.3	10284
2864.5	10239
2863.7	10194
2862.9	10162
2862.0	10112
2861.2	10062
2860.4	10012
2859.6	9957.8
2858.8	9903.5
2858.0	9858.0
2857.1	9808.0
2856.3	9762.5
2855.5	9708.0
2854.7	9662.4
2853.9	9621.1
2853.1	9588.6
2852.3	9547.3
2851.4	9514.8
2850.6	9469.0
2849.8	9423.2
2849.0	9377.3
2848.2	9340.3
2847.4	9298.8
2846.6	9244.1
2845.8	9202.6
2845.0	9174.3
2844.1	9141.5
2843.3	9113.2
2842.5	9076.0
2841.7	9034.4
2840.9	8988.3
2840.1	8946.6
2839.3	8913.7
2838.5	8880.8
2837.7	8843.5
2836.9	8806.1
2836.1	8764.3
2835.3	8722.5
2834.5	8685.1
2833.7	8647.6
2832.9	8610.1
2832.1	8577.1
2831.3	8539.6
2830.5	8506.5
2829.7	8477.8
2828.9	8440.2
2828.1	8398.1
2827.3	8360.5
2826.5	8327.3
2825.7	8289.6
2824.9	8247.5
2824.1	8200.9
2823.3	8149.8
2822.5	8094.2
2821.7	8038.6
2820.9	7987.4
2820.1	7931.7
2819.3	7880.5
2818.5	7824.7
2817.7	7773.4
2816.9	7717.6
2816.1	7666.3
2815.3	7619.3
2814.5	7563.4
2813.7	7516.4
2812.9	7464.9
2812.1	7417.9
2811.4	7375.3
2810.6	7323.7
2809.8	7267.6
2809.0	7216.0
2808.2	7159.8
2807.4	7108.1
2806.6	7051.9
2805.8	6995.7
2805.0	6934.9
2804.3	6874.1
2803.5	6817.8
2802.7	6756.9
2801.9	6700.5
2801.1	6644.0
2800.3	6592.1
2799.6	6535.6
2798.8	6479.0
2798.0	6417.9
2797.2	6361.3
2796.4	6309.2
2795.6	6252.5
2794.9	6200.3
2794.1	6148.1
2793.3	6100.3
2792.5	6043.5
2791.7	5991.2
2791.0	5934.3
2790.2	5881.9
2789.4	5834.0
2788.6	5781.6
2787.8	5729.1
2787.1	5676.6
2786.3	5624.1
2785.5	5571.5
2784.7	5518.9
2784.0	5470.8
2783.2	5422.6
2782.4	5379.0
2781.6	5330.8
2780.9	5282.6
2780.1	5243.3
2779.3	5195.1
2778.5	5151.3
2777.8	5107.5
2777.0	5068.2
2776.2	5028.8
2775.5	4994.0
2774.7	4954.6
2773.9	4915.2
2773.2	4880.3
2772.4	4840.9
2771.6	4801.4
2770.9	4762.0
2770.1	4722.5
2769.3	4687.5
2768.5	4652.4
2767.8	4617.4
2767.0	4577.8
2766.3	4541.4
2765.5	4507.2
2764.7	4474.3
2764.0	4440.1
2763.2	4404.1
2762.4	4366.2
2761.7	4327.3
2760.9	4287.5
2760.1	4251.4
2759.4	4214.3
2758.6	4177.2
2757.9	4141.0
2757.1	4098.8
2756.3	4055.8
2755.6	4013.5
2754.8	3970.9
2754.1	3928.2
2753.3	3884.1
2752.5	3843.1
2751.8	3802.6
2751.0	3761.6
2750.3	3717.4
2749.5	3673.7
2748.8	3629.0
2748.0	3581.5
2747.3	3533.5
2746.5	3484.2
2745.7	3430.7
2745.0	3375.3
2744.2	3316.2
2743.5	3256.2
2742.7	3193.4
2742.0	3130.2
2741.2	3062.3
2740.5	2992.9
2739.7	2925.0
2739.0	2853.7
2738.2	2782.9
2737.5	2713.9
2736.7	2643.9
2736.0	2574.8
2735.2	2510.3
2734.5	2447.6
2733.7	2383.4
2733.0	2320.2
2732.2	2257.8
2731.5	2199.1
2730.7	2140.3
2730.0	2080.6
2729.3	2021.3
2728.5	1961.1
2727.8	1901.7
2727.0	1842.3
2726.3	1782.0
2725.5	1720.7
2724.8	1659.3
2724.1	1597.1
2723.3	1535.2
2722.6	1474.2
2721.8	1416.5
2721.1	1358.2
2720.3	1300.4
2719.6	1246.2
2718.9	1195.2
2718.1	1147.9
2717.4	1104.3
2716.7	1062.1
2715.9	1021.2
2715.2	982.56
2714.4	947.18
2713.7	915.49
2713.0	884.70
2712.2	856.68
2711.5	815.67
2710.8	778.34
2710.0	757.68
2709.3	737.48
2708.6	717.27
2707.8	697.97
2707.1	680.52
2706.4	662.13
2705.6	645.12
2704.9	628.11
2704.2	611.55
2703.4	595.45
2702.7	580.26
2702.0	566.47
2701.2	554.53
2700.5	542.11
2699.8	531.09
2699.1	519.59
2698.3	508.55
2697.6	497.05
2696.9	485.53
2696.1	474.48
2695.4	464.58
2694.7	454.54
2694.0	444.26
2693.2	434.91
2692.5	425.78
2691.8	416.89
2691.1	408.50
2690.3	400.30
2689.6	393.12
2688.9	385.89
2688.2	378.88
2687.4	372.16
2686.7	365.57
2686.0	359.54
2685.3	353.51
2684.6	347.52
2683.8	341.99
2683.1	336.60
2682.4	331.45
2681.7	326.05
2681.0	320.94
2680.2	316.10
2679.5	311.54
2678.8	306.98
2678.1	302.56
2676.7	292.06
2675.9	279.93
2675.2	273.01
2673.8	266.62
2673.1	261.29
2671.7	256.63
2670.9	251.29
2670.2	246.36
2668.8	241.74
2668.1	237.57
2666.7	233.73
2666.0	229.55
2665.2	225.04
2663.8	221.20
2663.1	218.00
2661.7	213.92
2661.0	211.14
2660.3	208.46
2658.9	205.59
2658.2	202.48
2656.7	199.79
2656.0	197.25
2655.3	194.51
2653.9	192.00
2653.2	189.69
2651.8	186.85
2651.1	184.53
2649.7	182.35
2649.0	180.41
2648.3	178.32
2646.9	176.09
2646.2	174.23
2644.8	172.09
2644.1	170.10
2642.7	168.33
2642.0	166.57
2641.3	164.76
2639.9	163.18
2639.2	161.60
2637.8	159.88
2637.1	158.20
2635.7	156.57
2635.0	155.09
2633.7	153.78
2633.0	152.44
2632.3	151.00
2630.9	149.50
2630.2	148.40
2628.8	146.90
2628.1	145.69
2626.7	144.29
2626.1	143.13
2624.7	142.15
2624.0	140.94
2623.3	139.69
2621.9	138.42
2621.2	137.21
2619.9	135.98
2619.2	134.72
2617.8	133.59
2617.1	132.52
2615.7	131.49
2615.1	130.32
2613.7	129.24
2613.0	128.31
2612.3	127.33
2611.0	126.10
2610.3	125.12
2608.9	124.17
2608.2	123.19
2606.9	122.20
2606.2	121.31
2604.8	120.51
2604.2	119.77
2602.8	119.11
2602.1	118.27
2600.8	117.70
2600.1	117.15
2598.8	116.39
2598.1	115.70
2596.7	115.13
2596.1	114.58
2594.7	114.05
2594.0	113.41
2592.7	112.93
2592.0	112.28
2590.7	111.81
2590.0	111.30
2588.7	110.87
2588.0	110.37
2587.3	109.96
2586.0	109.43
2585.3	109.12
2584.0	108.74
2583.3	108.38
2582.0	108.05
2581.3	107.68
2580.0	107.30
2579.3	106.94
2578.0	106.65
2577.3	106.34
2576.0	106.15
2574.7	106.01
2574.0	105.74
2572.7	105.55
2572.0	105.44
2570.7	105.20
2570.0	104.98
2568.7	104.89
2568.1	104.72
2566.7	104.58
2566.1	104.46
2564.8	104.41
2564.1	104.34
2562.8	104.20
2562.1	104.13
2560.8	104.08
2560.2	103.91
2558.9	103.87
2558.2	103.79
2556.9	103.60
2556.2	103.53
2554.9	103.58
2554.3	103.51
2553.0	103.42
2552.3	103.34
2551.0	103.30
2549.7	103.30
2549.1	103.23
2547.8	103.23
2547.1	103.16
2545.8	103.21
2545.2	103.14
2543.9	103.14
2543.2	103.07
2541.9	103.07
2541.3	103.00
2540.0	102.95
2538.7	102.86
2538.1	102.79
2536.8	102.74
2536.1	102.72
2534.9	102.67
2534.2	102.60
2532.9	102.55
2532.3	102.47
2531.0	102.33
2529.7	102.23
2529.1	102.11
2527.8	101.96
2527.2	101.89
2525.9	101.74
2525.3	101.62
2524.0	101.52
2522.7	101.32
2522.1	101.10
2520.8	101.00
2520.2	100.87
2518.9	100.77
2518.3	100.55
2517.0	100.40
2515.7	100.20
2515.1	99.978
2513.8	99.778
2513.2	99.603
2511.9	99.253
2511.3	98.978
2510.0	98.727
2508.8	98.426
2508.2	98.100
2506.9	97.848
2506.3	97.472
2505.0	97.220
2503.8	96.867
2503.1	96.489
2501.9	96.086
2501.3	95.708
2500.0	95.303
2498.8	94.898
2498.1	94.520
2496.9	94.114
2496.3	93.735
2495.0	93.328
2493.8	92.972
2493.1	92.491
2491.9	91.982
2491.3	91.551
2490.0	90.890
2488.8	90.380
2488.2	89.645
2486.9	89.033
2485.7	88.571
2485.1	87.734
2483.9	87.019
2483.2	86.483
2482.0	86.172
2480.8	85.708
2480.2	85.223
2478.9	84.707
2477.7	83.989
2477.1	83.451
2475.9	82.884
2475.2	82.295
2474.0	81.726
2472.8	81.208
2472.2	80.618
2471.0	80.047
2469.7	79.476
2469.1	78.885
2467.9	78.364
2466.7	77.792
2466.1	77.250
2464.9	76.677
2464.3	76.134
2463.1	75.560
2461.8	74.984
2461.2	74.390
2460.0	73.814
2458.8	73.237
2458.2	72.641
2457.0	72.115
2455.8	71.587
2455.2	70.991
2454.0	70.462
2452.8	69.933
2452.2	69.335
2451.0	68.805
2449.8	68.275
2449.2	67.727
2448.0	67.247
2446.8	66.715
2446.2	66.218
2445.0	65.736
2443.8	65.254
2443.2	64.756
2442.0	64.273
2440.8	63.789
2440.2	63.290
2439.0	62.857
2437.8	62.372
2437.2	61.923
2436.1	61.489
2434.9	61.003
2434.3	60.553
2433.1	60.118
2431.9	59.734
2430.7	59.298
2430.1	58.847
2429.0	58.410
2427.8	57.972
2427.2	57.572
2426.0	57.134
2424.8	56.747
2424.2	56.294
2423.1	55.907
2421.9	55.519
2420.7	55.078
2420.1	54.676
2419.0	54.287
2417.8	53.898
2417.2	53.495
2416.0	53.104
2414.9	52.714
2413.7	52.323
2413.1	51.960
2412.0	51.590
2410.8	51.218
2410.2	50.866
2409.1	50.525
2407.9	50.184
2406.7	49.832
2406.2	49.500
2405.0	49.168
2403.8	48.836
2403.3	48.498
2402.1	48.191
2401.0	47.869
2399.8	47.557
2399.2	47.228
2398.1	46.921
2396.9	46.602
2395.8	46.294
2395.2	45.985
2394.1	45.671
2392.9	45.357
2391.8	45.048
2391.2	44.727
2390.1	44.412
2388.9	44.102
2387.8	43.802
2387.2	43.497
2386.1	43.207
2384.9	42.911
2383.8	42.594
2383.2	42.278
2382.1	41.987
2381.0	41.674
2379.8	41.382
2379.3	41.081
2378.1	40.794
2377.0	40.501
2375.9	40.219
2374.7	39.947
2374.2	39.655
2373.0	39.377
2371.9	39.104
2370.8	38.847
2370.2	38.554
2369.1	38.286
2368.0	38.012
2366.9	37.749
2365.7	37.496
2365.2	37.234
2364.1	36.991
2362.9	36.732
2361.8	36.478
2361.3	36.215
2360.2	35.950
2359.0	35.701
2357.9	35.451
2356.8	35.207
2356.3	34.964
2355.2	34.714
2354.0	34.469
2352.9	34.234
2351.8	34.010
2350.7	33.780
2350.2	33.547
2349.1	33.327
2348.0	33.108
2346.9	32.882
2345.8	32.662
2345.2	32.439
2344.1	32.202
2343.0	31.992
2341.9	31.776
2340.8	31.566
2339.7	31.355
2339.2	31.131
2338.1	30.931
2337.0	30.725
2335.9	30.524
2334.8	30.318
2334.3	30.110
2333.2	29.908
2332.1	29.707
2331.0	29.510
2329.9	29.324
2328.8	29.133
2327.7	28.947
2327.2	28.748
2326.1	28.567
2325.0	28.375
2324.0	28.194
2322.9	28.007
2321.8	27.836
2321.3	27.642
2320.2	27.460
2319.1	27.288
2318.0	27.116
2317.0	26.950
2315.9	26.789
2314.8	26.617
2313.7	26.461
2313.2	26.282
2312.1	26.120
2311.1	25.937
2310.0	25.785
2308.9	25.623
2307.9	25.472
2306.8	25.315
2305.7	25.163
2305.2	25.000
2304.1	24.864
2303.1	24.717
2302.0	24.587
2301.0	24.439
2299.9	24.314
2298.9	24.172
2297.8	24.052
2297.3	23.910
2296.2	23.790
2295.2	23.653
2294.1	23.521
2293.1	23.395
2292.0	23.269
2291.0	23.126
2289.9	22.994
2288.9	22.856
2287.8	22.735
2286.8	22.608
2286.2	22.486
2285.2	22.365
2284.1	22.243
2283.1	22.132
2282.1	22.026
2281.0	21.921
2280.0	21.831
2278.9	21.731
2277.9	21.625
2276.9	21.519
2275.8	21.435
2274.8	21.334
2273.8	21.234
2273.2	21.139
2272.2	21.043
2271.2	20.953
2270.1	20.880
2269.1	20.801
2268.1	20.722
2267.1	20.631
2266.0	20.541
2265.0	20.456
2264.0	20.376
2263.0	20.274
2261.9	20.195
2260.9	20.120
2259.9	20.035
2258.9	19.966
2257.8	19.892
2256.8	19.839
2255.8	19.793
2254.8	19.718
2253.8	19.649
2252.8	19.591
2252.3	19.534
2251.2	19.464
2250.2	19.412
2249.2	19.353
2248.2	19.301
2247.2	19.253
2246.2	19.200
2245.2	19.142
2244.2	19.089
2243.2	19.036
2242.2	18.983
2241.1	18.935
2240.1	18.882
2239.1	18.834
2238.1	18.792
2237.1	18.750
2236.1	18.702
2235.1	18.671
2234.1	18.646
2233.1	18.637
2232.1	18.601
2231.1	18.581
2230.2	18.572
2229.2	18.541
2228.2	18.515
2227.2	18.490
2226.2	18.470
2225.2	18.439
2224.2	18.418
2223.2	18.404
2222.2	18.373
2221.2	18.375
2220.2	18.372
2218.8	18.367
2217.8	18.358
2216.8	18.344
2215.8	18.318
2214.8	18.298
2213.9	18.289
2212.9	18.286
2211.9	18.277
2210.9	18.279
2209.9	18.293
2209.0	18.307
2208.0	18.320
2207.0	18.340
2206.0	18.336
2205.1	18.333
2204.1	18.341
2203.1	18.327
2202.2	18.329
2201.2	18.326
2200.2	18.334
2198.8	18.346
2197.8	18.348
2196.8	18.356
2195.9	18.364
2194.9	18.372
2193.9	18.375
2193.0	18.371
2192.0	18.374
2191.1	18.387
2190.1	18.424
2189.1	18.444
2188.2	18.480
2187.2	18.511
2185.8	18.564
2184.8	18.612
2183.9	18.661
2182.9	18.698
2182.0	18.735
2181.0	18.795
2180.1	18.832
2179.1	18.886
2178.2	18.946
2177.2	18.989
2175.8	19.048
2174.9	19.096
2173.9	19.134
2173.0	19.177
2172.0	19.231
2171.1	19.274
2170.1	19.323
2169.2	19.372
2167.8	19.425
2166.8	19.474
2165.9	19.529
2165.0	19.584
2164.0	19.633
2163.1	19.688
2162.2	19.749
2161.2	19.821
2159.8	19.881
2158.9	19.953
2158.0	20.020
2157.0	20.099
2156.1	20.166
2155.2	20.250
2153.8	20.339
2152.9	20.412
2151.9	20.497
2151.0	20.576
2150.1	20.655
2149.2	20.746
2148.2	20.836
2146.8	20.926
2145.9	21.029
2145.0	21.120
2144.1	21.217
2143.2	21.314
2141.8	21.415
2140.9	21.507
2140.0	21.616
2139.0	21.719
2138.1	21.822
2137.2	21.926
2135.8	22.034
2134.9	22.149
2134.0	22.271
2133.1	22.380
2132.2	22.496
2130.8	22.640
2129.9	22.768
2129.0	22.890
2128.1	23.023
2127.2	23.157
2125.9	23.290
2124.9	23.436
2124.0	23.582
2123.1	23.728
2121.8	23.886
2120.9	24.032
2120.0	24.202
2119.1	24.361
2118.2	24.519
2116.9	24.677
2116.0	24.848
2115.1	24.989
2114.2	25.149
2112.8	25.307
2111.9	25.485
2111.0	25.650
2110.1	25.828
2108.8	25.999
2107.9	26.189
2107.0	26.367
2106.1	26.557
2104.8	26.741
2103.9	26.943
2103.0	27.134
2102.2	27.331
2100.8	27.545
2100.0	27.760
2099.1	27.969
2098.2	28.185
2096.9	28.418
2096.0	28.646
2095.1	28.856
2093.8	29.096
2092.9	29.313
2092.1	29.547
2091.2	29.764
2089.9	30.011
2089.0	30.252
2088.1	30.499
2086.8	30.753
2085.9	31.001
2085.1	31.237
2084.2	31.497
2082.9	31.740
2082.0	32.001
2081.2	32.256
2079.9	32.536
2079.0	32.797
2078.1	33.071
2076.8	33.345
2076.0	33.626
2075.1	33.894
2073.8	34.188
2073.0	34.469
2072.1	34.762
2070.8	35.050
2070.0	35.362
2069.1	35.656
2067.8	35.976
2067.0	36.283
2066.1	36.608
2064.8	36.935
2064.0	37.261
2063.1	37.587
2061.9	37.927
2061.0	38.272
2060.2	38.617
2058.9	38.971
2058.0	39.335
2057.2	39.687
2055.9	40.054
2055.1	40.419
2053.8	40.786
2053.0	41.152
2052.1	41.518
2050.9	41.893
2050.0	42.278
2049.2	42.663
2047.9	43.057
2047.1	43.443
2045.8	43.857
2045.0	44.256
2044.2	44.661
2042.9	45.070
2042.1	45.488
2040.8	45.917
2040.0	46.348
2039.2	46.774
2037.9	47.228
2037.1	47.685
2035.8	48.140
2035.0	48.598
2034.2	49.069
2032.9	49.556
2032.1	50.009
2030.9	50.516
2030.0	50.982
2028.8	51.478
2028.0	51.970
2027.2	52.474
2025.9	52.990
2025.1	53.508
2023.9	54.037
2023.1	54.575
2021.8	55.124
2021.0	55.662
2020.2	56.213
2019.0	56.795
2018.2	57.354
2016.9	57.937
2016.1	58.508
2014.9	59.130
2014.1	59.734
2012.9	60.357
2012.1	60.987
2010.9	61.624
2010.1	62.255
2008.8	62.931
2008.0	63.582
2006.8	64.246
2006.0	64.898
2004.8	65.627
2004.0	66.343
2002.8	67.010
2002.0	67.790
2001.2	68.508
2000.0	69.241
1998.8	70.037
1998.0	70.819
1996.8	71.554
1996.0	72.338
1994.8	73.137
1994.0	73.923
1992.8	74.787
1992.0	75.574
1990.8	76.439
1990.0	77.228
1988.9	78.095
1988.1	78.948
1986.9	79.817
1986.1	80.671
1984.9	81.606
1984.1	82.525
1982.9	83.461
1982.2	84.382
1981.0	85.320
1979.8	86.323
1979.0	87.246
1977.8	88.251
1977.1	89.176
1975.9	90.182
1975.1	91.109
1973.9	92.181
1973.2	93.173
1972.0	94.120
1970.8	95.132
1970.1	96.191
1968.9	97.205
1968.1	98.201
1967.0	99.281
1966.2	100.28
1965.0	101.36
1963.9	102.44
1963.1	103.45
1961.9	104.53
1961.2	105.53
1960.0	106.62
1958.9	107.71
1958.1	108.71
1956.9	109.81
1956.2	110.81
1955.0	111.84
1953.9	112.94
1953.1	113.88
1952.0	114.91
1950.8	115.88
1950.1	116.89
1948.9	117.87
1948.2	118.81
1947.0	119.72
1945.9	120.70
1945.1	121.52
1944.0	122.43
1942.9	123.28
1942.1	124.10
1941.0	124.89
1939.9	125.67
1939.1	126.30
1938.0	126.96
1936.9	127.55
1936.1	128.12
1935.0	128.65
1933.9	129.12
1933.1	129.56
1932.0	129.89
1930.9	130.16
1930.1	130.34
1929.0	130.48
1927.9	130.62
1927.2	130.61
1926.0	130.55
1924.9	130.43
1923.8	130.25
1923.1	129.91
1922.0	129.59
1920.9	129.14
1920.1	128.67
1919.0	128.09
1917.9	127.44
1917.2	126.64
1916.1	125.79
1915.0	124.81
1913.9	123.83
1913.1	122.70
1912.0	121.52
1910.9	120.21
1909.9	118.83
1909.1	117.30
1908.0	115.65
1906.9	113.87
1905.9	112.02
1905.1	109.96
1904.0	107.84
1902.9	105.46
1901.9	103.01
1901.1	100.27
1900.1	97.486
1899.0	94.563
1897.9	91.505
1897.2	88.294
1896.1	84.965
1895.0	81.565
1893.9	78.094
1892.9	74.554
1892.1	70.996
1891.1	67.514
1890.0	64.009
1888.9	60.566
1887.9	57.232
1887.1	53.971
1886.1	50.876
1885.0	47.892
1883.9	45.057
1882.9	42.360
1882.2	39.839
1881.1	37.450
1880.1	35.252
1879.0	33.172
1877.9	31.276
1876.9	29.506
1876.2	27.877
1875.1	26.351
1874.1	24.964
1873.0	23.670
1872.0	22.495
1870.9	21.386
1869.9	20.390
1869.2	19.456
1868.1	18.600
1867.1	17.809
1866.0	17.085
1865.0	16.407
1863.9	15.803
1862.9	15.238
1861.9	14.720
1861.2	14.226
1860.1	13.788
1859.1	13.377
1858.0	13.012
1857.0	12.661
1856.0	12.350
1854.9	12.059
1853.9	11.815
1852.9	11.577
1851.9	11.359
1851.2	11.146
1850.1	10.956
1849.1	10.765
1848.1	10.607
1847.1	10.436
1846.0	10.306
1845.0	10.176
1844.0	10.052
1843.0	9.9346
1842.0	9.8241
1840.9	9.7135
1839.9	9.6232
1838.9	9.5260
1837.9	9.4492
1836.9	9.3723
1835.9	9.3091
1834.9	9.2525
1833.9	9.1891
1832.8	9.1393
1831.8	9.0963
1831.2	9.0448
1830.2	9.0154
1829.2	8.9791
1828.2	8.9566
1827.2	8.9271
1826.2	8.9045
1825.2	8.8887
1824.2	8.8867
1823.2	8.8708
1822.2	8.8688
1821.2	8.8598
1819.8	8.8525
1818.8	8.8435
1817.9	8.8345
1816.9	8.8186
1815.9	8.8095
1814.9	8.7936
1813.9	8.7984
1812.9	8.7893
1811.9	8.7871
1810.9	8.7780
1810.0	8.7550
1809.0	8.7528
1808.0	8.7437
1807.0	8.7345
1806.0	8.7392
1805.1	8.7370
1804.1	8.7487
1803.1	8.7534
1802.1	8.7652
1801.2	8.7769
1799.9	8.7902
1798.9	8.7949
1797.9	8.7997
1796.9	8.8114
1796.0	8.8092
1795.0	8.8069
1794.0	8.8046
1793.1	8.7954
1792.1	8.7791
1791.2	8.7768
1789.9	8.7760
1788.9	8.7526
1787.9	8.7363
1787.0	8.7198
1786.0	8.6893
1785.1	8.6729
1784.1	8.6423
1782.8	8.6132
1781.9	8.5896
1780.9	8.5589
1780.0	8.5353
1779.0	8.5116
1778.1	8.4808
1777.1	8.4500
1775.9	8.4277
1774.9	8.3897
1774.0	8.3516
1773.0	8.3206
1772.1	8.2683
1770.9	8.2387
1769.9	8.2005
1769.0	8.1551
1768.0	8.1026
1767.1	8.0500
1765.8	7.9916
1764.9	7.9460
1764.0	7.8932
1763.0	7.8333
1762.1	7.7804
1760.9	7.7288
1759.9	7.6614
1759.0	7.5940
1758.1	7.5409
1756.9	7.4746
1755.9	7.4070
1755.0	7.3393
1754.1	7.2787
1752.8	7.2265
1751.9	7.1722
1751.0	7.1106
1750.1	7.0591
1748.9	6.9986
1747.9	6.9491
1747.0	6.8966
1746.1	6.8470
1744.9	6.7913
1744.0	6.7480
1743.1	6.6931
1741.9	6.6552
1740.9	6.6125
1740.0	6.5705
1739.1	6.5204
1737.9	6.4895
1737.0	6.4445
1736.1	6.3957
1734.9	6.3668
1734.0	6.3346
1733.1	6.2879
1731.9	6.2523
1731.0	6.2193
1730.1	6.2000
1728.9	6.1629
1728.0	6.1362
1727.1	6.0980
1725.9	6.0847
1725.0	6.0507
1724.1	6.0269
1722.9	5.9967
1722.1	5.9750
1720.9	5.9434
1720.0	5.9296
1719.1	5.8939
1717.9	5.8746
1717.0	5.8417
1715.9	5.8282
1715.0	5.8107
1714.1	5.7983
1712.9	5.7744
1712.0	5.7656
1710.9	5.7504
1710.0	5.7328
1709.1	5.7034
1707.9	5.6911
1707.1	5.6712
1705.9	5.6618
1705.0	5.6360
1703.9	5.6280
1703.0	5.6073
1702.1	5.6065
1701.0	5.5829
1700.1	5.5725
1698.9	5.5556
1698.1	5.5451
1696.9	5.5355
1696.1	5.5383
1694.9	5.5221
1694.1	5.5189
1692.9	5.5101
1692.0	5.5195
1690.9	5.5144
1690.0	5.5186
1688.9	5.5120
1688.0	5.5267
1686.9	5.5103
1686.1	5.5213
1684.9	5.5153
1684.1	5.5196
1682.9	5.5203
1682.1	5.5268
1681.0	5.5156
1680.1	5.5236
1679.0	5.5161
1678.1	5.5286
1677.0	5.5278
1675.9	5.5330
1675.0	5.5253
1673.9	5.5320
1673.1	5.5280
1672.0	5.5423
1671.1	5.5360
1670.0	5.5450
1668.9	5.5479
1668.1	5.5620
1666.9	5.5657
1666.1	5.5836
1665.0	5.5820
1663.9	5.6039
1663.1	5.5961
1662.0	5.6142
1661.1	5.6026
1660.0	5.6177
1658.9	5.6191
1658.1	5.6257
1657.0	5.6264
1655.9	5.6484
1655.1	5.6436
1654.0	5.6579
1652.9	5.6587
1652.1	5.6820
1651.0	5.6850
1649.9	5.7063
1649.1	5.7159
1648.0	5.7464
1646.9	5.7532
1646.1	5.7843
1645.0	5.7981
1643.9	5.8286
1643.1	5.8437
1642.0	5.8751
1641.0	5.8867
1639.9	5.9127
1639.1	5.9172
1638.0	5.9395
1636.9	5.9487
1636.1	5.9709
1635.1	5.9802
1634.0	6.0048
1632.9	6.0188
1632.1	6.0456
1631.1	6.0518
1630.0	6.0758
1628.9	6.0929
1627.9	6.1223
1627.1	6.1277
1626.0	6.1633
1625.0	6.1859
1623.9	6.2178
1623.1	6.2464
1622.1	6.2791
1621.0	6.3087
1620.0	6.3454
1618.9	6.3658
1618.1	6.3976
1617.1	6.4173
1616.0	6.4487
1615.0	6.4739
1613.9	6.5030
1612.9	6.5290
1612.1	6.5633
1611.1	6.5956
1610.0	6.6295
1609.0	6.6541
1608.0	6.6951
1606.9	6.7159
1605.9	6.7452
1604.9	6.7809
1604.1	6.8233
1603.1	6.8606
1602.1	6.9058
1601.0	6.9432
1600.0	6.9869
1599.0	7.0409
1598.0	7.0839
1596.9	7.1278
1595.9	7.1678
1594.9	7.2070
1593.9	7.2573
1593.1	7.3081
1592.1	7.3688
1591.1	7.4257
1590.1	7.4889
1589.1	7.5419
1588.1	7.6036
1587.0	7.6544
1586.0	7.7115
1585.0	7.7727
1584.0	7.8340
1583.0	7.8897
1582.0	7.9591
1581.0	8.0357
1580.0	8.1044
1579.0	8.1572
1578.0	8.2341
1577.0	8.2950
1576.0	8.3640
1575.1	8.4411
1574.1	8.5023
1573.1	8.5796
1572.1	8.6569
1571.1	8.7343
1570.1	8.8119
1569.1	8.8895
1567.9	8.9846
1566.9	9.0544
1565.9	9.1403
1564.9	9.2103
1564.0	9.3045
1563.0	9.3826
1562.0	9.4770
1561.0	9.5634
1560.1	9.6499
1559.1	9.7446
1558.1	9.8313
1556.9	9.9197
1555.9	10.015
1555.0	10.110
1554.0	10.221
1553.0	10.317
1552.1	10.428
1551.1	10.532
1549.9	10.646
1548.9	10.766
1548.0	10.878
1547.0	10.998
1546.1	11.127
1545.1	11.248
1543.9	11.387
1543.0	11.516
1542.0	11.662
1541.1	11.799
1539.9	11.939
1538.9	12.077
1538.0	12.231
1537.0	12.378
1536.1	12.525
1534.9	12.665
1534.0	12.820
1533.0	12.976
1532.1	13.148
1530.9	13.306
1530.0	13.478
1529.1	13.626
1528.1	13.799
1527.0	13.949
1526.0	14.131
1525.1	14.304
1523.9	14.488
1523.0	14.679
1522.1	14.869
1520.9	15.054
1520.0	15.245
1519.1	15.428
1517.9	15.638
1517.0	15.830
1516.1	16.039
1514.9	16.250
1514.0	16.467
1513.1	16.685
1511.9	16.905
1511.0	17.124
1509.9	17.361
1509.0	17.580
1508.1	17.815
1506.9	18.037
1506.0	18.273
1504.9	18.496
1504.0	18.741
1503.1	18.978
1502.0	19.235
1501.1	19.481
1499.9	19.747
1499.0	20.010
1497.9	20.277
1497.0	20.524
1496.1	20.797
1495.0	21.073
1494.1	21.363
1493.0	21.632
1492.1	21.906
1491.0	22.183
1490.1	22.475
1489.0	22.736
1488.1	23.037
1487.0	23.316
1486.1	23.609
1485.0	23.880
1483.9	24.161
1483.0	24.429
1481.9	24.710
1481.0	24.971
1479.9	25.252
1479.1	25.522
1478.0	25.813
1477.1	26.084
1476.0	26.375
1474.9	26.668
1474.1	26.956
1473.0	27.223
1472.1	27.513
1471.0	27.772
1469.9	28.023
1469.1	28.262
1468.0	28.514
1466.9	28.741
1466.1	28.963
1465.0	29.173
1463.9	29.383
1463.1	29.547
1462.0	29.714
1460.9	29.848
1460.1	29.969
1459.0	30.059
1457.9	30.150
1457.1	30.220
1456.0	30.293
1455.0	30.350
1453.9	30.415
1453.1	30.442
1452.0	30.490
1451.0	30.512
1449.9	30.543
1449.1	30.552
1448.0	30.556
1447.0	30.561
1445.9	30.548
1445.1	30.531
1444.0	30.519
1443.0	30.488
1442.0	30.458
1440.9	30.419
1440.1	30.367
1439.1	30.293
1438.0	30.227
1437.0	30.135
1436.0	30.034
1434.9	29.916
1433.9	29.806
1433.1	29.674
1432.0	29.555
1431.0	29.400
1430.0	29.263
1429.0	29.082
1428.0	28.918
1426.9	28.727
1425.9	28.545
1424.9	28.318
1424.1	28.087
1423.1	27.842
1422.1	27.588
1421.1	27.316
1420.1	27.034
1419.0	26.726
1418.0	26.408
1417.0	26.063
1416.0	25.709
1415.0	25.328
1414.0	24.928
1413.0	24.501
1412.0	24.073
1411.0	23.600
1410.0	23.127
1409.0	22.599
1408.1	22.080
1407.1	21.515
1406.1	20.949
1405.1	20.346
1403.9	19.746
1402.9	19.124
1401.9	18.474
1401.0	17.805
1400.0	17.144
1399.0	16.456
1398.0	15.784
1397.0	15.094
1396.1	14.411
1395.1	13.746
1393.9	13.099
1393.0	12.450
1392.0	11.835
1391.0	11.220
1390.0	10.631
1389.1	10.069
1387.9	9.5430
1387.0	9.0304
1386.0	8.5453
1385.0	8.0894
1384.1	7.6710
1382.9	7.2785
1382.0	6.9271
1381.0	6.5797
1380.1	6.2701
1378.9	5.9809
1378.0	5.7197
1377.0	5.4791
1376.1	5.2792
1374.9	5.0743
1374.0	4.9040
1373.1	4.7499
1371.9	4.6192
1371.0	4.5041
1370.1	4.3990
1368.9	4.2934
1368.0	4.2164
1367.1	4.1329
1365.9	4.0571
1365.0	3.9853
1364.1	3.9319
1363.0	3.8705
1362.0	3.8021
1360.9	3.7471
1360.0	3.7006
1359.1	3.6532
1358.0	3.5998
1357.0	3.5439
1355.9	3.4995
1355.0	3.4490
1353.9	3.4082
1353.0	3.3631
1352.1	3.3236
1351.0	3.2667
1350.1	3.2298
1349.0	3.1980
1348.1	3.1666
1347.0	3.1262
1346.1	3.0919
1345.0	3.0524
1344.1	3.0245
1343.0	2.9680
1341.9	2.9226
1341.0	2.8890
1339.9	2.8547
1339.0	2.8032
1338.0	2.7575
1337.1	2.7077
1336.0	2.6638
1334.9	2.6094
1334.0	2.5499
1333.0	2.4954
1331.9	2.4417
1331.0	2.3867
1330.0	2.3470
1329.1	2.3023
1328.0	2.2530
1327.0	2.2037
1326.1	2.1663
1325.0	2.1234
1324.0	2.0796
1322.9	2.0328
1322.1	2.0008
1321.0	1.9558
1320.0	1.9164
1319.1	1.8710
1318.0	1.8420
1317.0	1.8139
1316.0	1.7838
1314.9	1.7451
1314.1	1.7108
1313.0	1.6720
1312.0	1.6340
1311.0	1.5989
1309.9	1.5608
1309.1	1.5311
1308.0	1.5093
1307.0	1.4903
1306.0	1.4789
1305.0	1.4541
1304.0	1.4350
1302.9	1.4168
1302.1	1.3994
1301.1	1.3763
1300.1	1.3639
1299.0	1.3524
1298.0	1.3408
1297.0	1.3303
1296.0	1.3197
1295.0	1.3110
1294.0	1.3062
1293.0	1.2936
1292.0	1.2907
1291.0	1.2781
1290.0	1.2742
1289.0	1.2635
1288.0	1.2479
1287.0	1.2342
1286.0	1.2234
1285.0	1.2185
1284.0	1.2135
1283.0	1.1978
1282.1	1.1890
1281.1	1.1673
1279.9	1.1615
1278.9	1.1506
1278.0	1.1515
1277.0	1.1435
1276.0	1.1483
1275.0	1.1383
1274.0	1.1363
1273.1	1.1273
1271.9	1.1194
1271.0	1.1143
1270.0	1.1191
1269.0	1.1160
1268.1	1.1317
1266.9	1.1347
1266.0	1.1485
1265.0	1.1434
1264.1	1.1512
1262.9	1.1482
1262.0	1.1581
1261.0	1.1520
1259.9	1.1520
1259.0	1.1509
1258.0	1.1587
1257.1	1.1526
1256.0	1.1696
1255.0	1.1655
1254.1	1.1734
1253.0	1.1674
1252.0	1.1743
1250.9	1.1653
1250.0	1.1712
1249.1	1.1630
1248.0	1.1791
1247.0	1.1840
1246.0	1.2022
1245.0	1.2021
1243.9	1.2213
1243.0	1.2233
1241.9	1.2395
1241.0	1.2364
1239.9	1.2547
1239.0	1.2516
1237.9	1.2669
1237.0	1.2688
1235.9	1.2831
1235.0	1.2831
1234.0	1.2913
1233.0	1.2821
1232.0	1.2883
